Date : Thu Jun 03 18:56:24 2021

3000ev

AES params
 Ep [eV] : 3000.0
 It [uA] : 0.40
 Fmod [kHz] : 2.2
 Amod [V] : 1.20
 SEM [V] : 2018
Lock-in params
 Sensitivity [mV] : 0.030
 Phase [deg] : 74.0
 Time const [ms] : 0.3
 Prefilter [ms] : 100.0

   Start-End(eV)  Res(meV)  ms/pnt  Rate(eV/s) Aver
1     20-1800        223    300      0.744     1
Num of spectra : 1

  19.957     -517.8 
  20.181     -601.0 
  20.404     -596.8 
  20.627     -567.5 
  20.851     -528.0 
  21.074     -485.1 
  21.297     -446.1 
  21.521     -410.9 
  21.744     -375.9 
  21.967     -353.8 
  22.190     -333.7 
  22.414     -315.6 
  22.637     -293.8 
  22.860     -281.4 
  23.084     -262.2 
  23.307     -245.2 
  23.530     -235.3 
  23.754     -224.6 
  23.977     -213.1 
  24.200     -204.5 
  24.423     -196.7 
  24.647     -190.2 
  24.870     -181.7 
  25.093     -170.6 
  25.317     -153.8 
  25.540     -133.7 
  25.763     -117.6 
  25.987     -103.6 
  26.210      -93.8 
  26.433      -76.2 
  26.656      -59.8 
  26.880      -52.3 
  27.103      -38.3 
  27.326      -24.9 
  27.550      -15.7 
  27.773      -17.5 
  27.996      -17.6 
  28.219      -22.2 
  28.443      -37.4 
  28.666      -49.4 
  28.889      -62.9 
  29.113      -77.0 
  29.336      -94.2 
  29.559     -111.1 
  29.783     -130.9 
  30.006     -162.8 
  30.229     -193.2 
  30.452     -222.5 
  30.676     -246.0 
  30.899     -279.3 
  31.122     -311.2 
  31.346     -347.4 
  31.569     -379.3 
  31.792     -398.6 
  32.016     -426.6 
  32.239     -451.2 
  32.462     -470.5 
  32.685     -486.5 
  32.909     -507.3 
  33.132     -523.1 
  33.355     -527.7 
  33.579     -537.0 
  33.802     -546.7 
  34.025     -546.0 
  34.249     -549.8 
  34.472     -553.8 
  34.695     -551.3 
  34.918     -557.9 
  35.142     -562.9 
  35.365     -561.2 
  35.588     -569.6 
  35.812     -576.4 
  36.035     -600.6 
  36.258     -670.9 
  36.481     -706.5 
  36.705     -722.1 
  36.928     -721.5 
  37.151     -714.7 
  37.375     -711.3 
  37.598     -706.8 
  37.821     -702.5 
  38.045     -697.8 
  38.268     -698.5 
  38.491     -692.4 
  38.714     -683.5 
  38.938     -677.8 
  39.161     -668.9 
  39.384     -654.2 
  39.608     -642.9 
  39.831     -626.5 
  40.054     -608.8 
  40.278     -589.8 
  40.501     -576.8 
  40.724     -557.6 
  40.947     -541.8 
  41.171     -529.2 
  41.394     -517.5 
  41.617     -506.9 
  41.841     -490.3 
  42.064     -484.5 
  42.287     -467.3 
  42.511     -450.0 
  42.734     -437.4 
  42.957     -427.4 
  43.180     -420.8 
  43.404     -416.3 
  43.627     -401.1 
  43.850     -391.2 
  44.074     -391.0 
  44.297     -382.3 
  44.520     -376.9 
  44.743     -371.0 
  44.967     -360.1 
  45.190     -364.1 
  45.413     -363.3 
  45.637     -357.9 
  45.860     -348.0 
  46.083     -343.7 
  46.307     -339.8 
  46.530     -333.5 
  46.753     -332.2 
  46.976     -335.6 
  47.200     -329.6 
  47.423     -320.7 
  47.646     -323.1 
  47.870     -319.9 
  48.093     -316.2 
  48.316     -315.4 
  48.540     -312.2 
  48.763     -313.8 
  48.986     -317.2 
  49.209     -313.3 
  49.433     -310.0 
  49.656     -311.2 
  49.879     -310.9 
  50.103     -304.9 
  50.326     -300.4 
  50.549     -295.4 
  50.773     -298.7 
  50.996     -292.2 
  51.219     -289.1 
  51.442     -288.9 
  51.666     -287.3 
  51.889     -280.3 
  52.112     -272.8 
  52.336     -269.1 
  52.559     -264.1 
  52.782     -258.5 
  53.005     -253.5 
  53.229     -246.5 
  53.452     -241.9 
  53.675     -232.4 
  53.899     -230.2 
  54.122     -224.8 
  54.345     -224.1 
  54.569     -215.9 
  54.792     -208.1 
  55.015     -203.5 
  55.238     -197.2 
  55.462     -194.9 
  55.685     -190.3 
  55.908     -182.0 
  56.132     -183.0 
  56.355     -177.3 
  56.578     -175.5 
  56.802     -181.4 
  57.025     -177.8 
  57.248     -172.2 
  57.471     -171.1 
  57.695     -173.5 
  57.918     -169.1 
  58.141     -169.8 
  58.365     -167.8 
  58.588     -166.5 
  58.811     -165.0 
  59.035     -165.2 
  59.258     -170.7 
  59.481     -167.9 
  59.704     -165.8 
  59.928     -167.1 
  60.151     -168.7 
  60.374     -167.1 
  60.598     -167.6 
  60.821     -168.7 
  61.044     -169.6 
  61.267     -170.6 
  61.491     -172.2 
  61.714     -169.3 
  61.937     -165.8 
  62.161     -169.3 
  62.384     -169.2 
  62.607     -166.2 
  62.831     -160.4 
  63.054     -162.2 
  63.277     -164.9 
  63.500     -168.6 
  63.724     -169.1 
  63.947     -165.5 
  64.170     -160.2 
  64.394     -161.5 
  64.617     -161.7 
  64.840     -159.6 
  65.064     -159.5 
  65.287     -156.1 
  65.510     -156.1 
  65.733     -154.7 
  65.957     -145.6 
  66.180     -149.5 
  66.403     -150.4 
  66.627     -147.8 
  66.850     -151.6 
  67.073     -152.1 
  67.297     -149.7 
  67.520     -153.1 
  67.743     -156.6 
  67.966     -150.7 
  68.190     -148.0 
  68.413     -147.6 
  68.636     -146.6 
  68.860     -148.5 
  69.083     -150.5 
  69.306     -141.0 
  69.529     -138.6 
  69.753     -138.5 
  69.976     -138.7 
  70.199     -135.4 
  70.423     -132.5 
  70.646     -124.9 
  70.869     -117.7 
  71.093     -114.1 
  71.316     -106.9 
  71.539      -98.4 
  71.762      -89.2 
  71.986      -85.9 
  72.209      -78.4 
  72.432      -70.5 
  72.656      -65.7 
  72.879      -58.6 
  73.102      -55.6 
  73.326      -47.6 
  73.549      -40.0 
  73.772      -33.0 
  73.995      -27.6 
  74.219      -20.5 
  74.442      -11.8 
  74.665      -10.4 
  74.889       -6.2 
  75.112       -4.8 
  75.335      -10.1 
  75.559      -19.4 
  75.782      -24.1 
  76.005      -25.8 
  76.228      -35.7 
  76.452      -46.6 
  76.675      -58.1 
  76.898      -73.4 
  77.122      -87.2 
  77.345      -98.5 
  77.568     -113.2 
  77.792     -124.0 
  78.015     -132.3 
  78.238     -142.6 
  78.461     -157.2 
  78.685     -176.8 
  78.908     -191.6 
  79.131     -201.2 
  79.355     -214.5 
  79.578     -219.6 
  79.801     -221.4 
  80.024     -227.8 
  80.248     -233.7 
  80.471     -243.2 
  80.694     -248.8 
  80.918     -251.6 
  81.141     -251.3 
  81.364     -251.2 
  81.588     -257.5 
  81.811     -253.5 
  82.034     -250.9 
  82.257     -248.2 
  82.481     -248.0 
  82.704     -244.8 
  82.927     -242.7 
  83.151     -234.7 
  83.374     -229.2 
  83.597     -231.0 
  83.821     -224.3 
  84.044     -215.5 
  84.267     -207.7 
  84.490     -203.9 
  84.714     -205.0 
  84.937     -202.3 
  85.160     -192.8 
  85.384     -187.4 
  85.607     -185.3 
  85.830     -179.9 
  86.054     -174.0 
  86.277     -166.2 
  86.500     -161.8 
  86.723     -160.9 
  86.947     -158.7 
  87.170     -154.3 
  87.393     -151.6 
  87.617     -144.3 
  87.840     -139.8 
  88.063     -135.7 
  88.286     -129.8 
  88.510     -127.3 
  88.733     -124.5 
  88.956     -118.5 
  89.180     -119.2 
  89.403     -122.8 
  89.626     -124.5 
  89.850     -121.6 
  90.073     -119.7 
  90.296     -116.8 
  90.519     -115.8 
  90.743     -115.6 
  90.966     -114.6 
  91.189     -113.7 
  91.413     -114.7 
  91.636     -109.9 
  91.859     -106.5 
  92.083     -102.3 
  92.306      -97.8 
  92.529      -99.2 
  92.752      -96.3 
  92.976      -87.7 
  93.199      -80.3 
  93.422      -71.9 
  93.646      -70.7 
  93.869      -71.7 
  94.092      -67.3 
  94.316      -59.3 
  94.539      -53.6 
  94.762      -46.6 
  94.985      -41.2 
  95.209      -35.0 
  95.432      -27.5 
  95.655      -23.3 
  95.879      -17.5 
  96.102       -8.6 
  96.325       -3.3 
  96.548       -1.6 
  96.772       -0.6 
  96.995      -12.6 
  97.218       -9.7 
  97.442       -5.2 
  97.665        0.3 
  97.888        1.1 
  98.112        3.4 
  98.335        3.5 
  98.558        1.6 
  98.781       -2.0 
  99.005       -2.7 
  99.228       -5.7 
  99.451       -7.0 
  99.675      -14.7 
  99.898      -25.9 
 100.121      -31.4 
 100.345      -36.7 
 100.568      -45.3 
 100.791      -55.9 
 101.014      -61.4 
 101.238      -63.8 
 101.461      -75.3 
 101.684      -81.7 
 101.908      -87.3 
 102.131      -91.6 
 102.354      -97.3 
 102.578     -112.8 
 102.801     -115.7 
 103.024     -117.8 
 103.247     -118.3 
 103.471     -121.7 
 103.694     -125.9 
 103.917     -126.8 
 104.141     -125.5 
 104.364     -126.2 
 104.587     -122.6 
 104.810     -117.2 
 105.034     -117.0 
 105.257     -114.2 
 105.480     -109.9 
 105.704     -108.6 
 105.927     -101.7 
 106.150      -97.9 
 106.374      -97.2 
 106.597      -95.8 
 106.820      -89.2 
 107.043      -85.1 
 107.267      -89.0 
 107.490      -88.0 
 107.713      -87.2 
 107.937      -89.7 
 108.160      -87.8 
 108.383      -93.3 
 108.607      -89.6 
 108.830      -91.6 
 109.053      -97.0 
 109.276      -99.6 
 109.500     -103.9 
 109.723     -105.6 
 109.946     -106.9 
 110.170     -108.9 
 110.393     -115.3 
 110.616     -123.2 
 110.840     -126.0 
 111.063     -128.2 
 111.286     -135.7 
 111.509     -140.8 
 111.733     -150.1 
 111.956     -152.0 
 112.179     -156.7 
 112.403     -164.2 
 112.626     -166.7 
 112.849     -167.8 
 113.072     -166.4 
 113.296     -171.3 
 113.519     -168.9 
 113.742     -165.1 
 113.966     -161.3 
 114.189     -159.6 
 114.412     -149.0 
 114.636     -147.6 
 114.859     -142.7 
 115.082     -133.4 
 115.305     -124.9 
 115.529     -120.0 
 115.752     -115.6 
 115.975     -108.7 
 116.199     -101.7 
 116.422      -94.3 
 116.645      -88.1 
 116.869      -84.4 
 117.092      -79.5 
 117.315      -70.7 
 117.538      -60.6 
 117.762      -56.3 
 117.985      -48.0 
 118.208      -41.1 
 118.432      -37.2 
 118.655      -34.3 
 118.878      -25.7 
 119.102      -17.3 
 119.325      -17.6 
 119.548      -19.2 
 119.771      -14.5 
 119.995      -10.3 
 120.218       -9.1 
 120.441      -19.6 
 120.665      -21.6 
 120.888      -17.6 
 121.111      -15.2 
 121.334      -15.2 
 121.558      -14.2 
 121.781      -10.5 
 122.004      -12.6 
 122.228      -20.3 
 122.451      -21.1 
 122.674      -17.6 
 122.898      -11.1 
 123.121      -11.1 
 123.344      -19.7 
 123.567      -22.0 
 123.791      -22.4 
 124.014      -24.7 
 124.237      -33.4 
 124.461      -38.9 
 124.684      -47.0 
 124.907      -54.5 
 125.131      -76.6 
 125.354      -88.5 
 125.577      -94.4 
 125.800     -100.5 
 126.024     -108.9 
 126.247     -125.4 
 126.470     -134.3 
 126.694     -144.8 
 126.917     -156.6 
 127.140     -165.1 
 127.364     -170.1 
 127.587     -176.5 
 127.810     -179.1 
 128.033     -183.2 
 128.257     -184.9 
 128.480     -183.1 
 128.703     -184.7 
 128.927     -180.5 
 129.150     -174.5 
 129.373     -167.0 
 129.596     -161.3 
 129.820     -155.5 
 130.043     -150.2 
 130.266     -138.7 
 130.490     -132.8 
 130.713     -131.7 
 130.936     -121.3 
 131.160     -117.1 
 131.383     -112.8 
 131.606     -109.6 
 131.829     -104.7 
 132.053     -103.2 
 132.276      -98.0 
 132.499      -92.8 
 132.723      -95.2 
 132.946      -90.8 
 133.169      -87.3 
 133.393      -89.3 
 133.616      -87.1 
 133.839      -84.4 
 134.062      -91.8 
 134.286      -89.4 
 134.509      -90.4 
 134.732      -89.8 
 134.956      -77.7 
 135.179      -77.1 
 135.402      -78.2 
 135.626      -78.6 
 135.849      -78.7 
 136.072      -75.4 
 136.295      -80.3 
 136.519      -80.4 
 136.742      -79.3 
 136.965      -82.6 
 137.189      -82.4 
 137.412      -80.3 
 137.635      -81.7 
 137.858      -74.4 
 138.082      -73.5 
 138.305      -75.4 
 138.528      -76.5 
 138.752      -70.2 
 138.975      -63.6 
 139.198      -61.1 
 139.422      -59.2 
 139.645      -56.1 
 139.868      -55.6 
 140.091      -53.1 
 140.315      -55.6 
 140.538      -55.8 
 140.761      -58.5 
 140.985      -58.4 
 141.208      -57.0 
 141.431      -55.9 
 141.655      -56.5 
 141.878      -52.1 
 142.101      -53.0 
 142.324      -55.6 
 142.548      -55.1 
 142.771      -53.0 
 142.994      -49.2 
 143.218      -50.9 
 143.441      -57.5 
 143.664      -57.6 
 143.888      -57.2 
 144.111      -57.5 
 144.334      -52.6 
 144.557      -57.8 
 144.781      -61.5 
 145.004      -58.3 
 145.227      -57.6 
 145.451      -64.2 
 145.674      -66.7 
 145.897      -64.6 
 146.120      -68.8 
 146.344      -66.4 
 146.567      -61.4 
 146.790      -65.7 
 147.014      -72.7 
 147.237      -77.1 
 147.460      -80.2 
 147.684      -82.5 
 147.907      -78.2 
 148.130      -80.4 
 148.353      -82.4 
 148.577      -81.7 
 148.800      -85.6 
 149.023      -86.1 
 149.247      -81.2 
 149.470      -79.2 
 149.693      -80.2 
 149.917      -78.4 
 150.140      -71.1 
 150.363      -69.8 
 150.586      -68.2 
 150.810      -71.8 
 151.033      -72.7 
 151.256      -71.6 
 151.480      -68.5 
 151.703      -69.8 
 151.926      -65.0 
 152.150      -59.9 
 152.373      -57.1 
 152.596      -58.2 
 152.819      -55.1 
 153.043      -57.0 
 153.266      -60.6 
 153.489      -55.5 
 153.713      -59.1 
 153.936      -52.4 
 154.159      -47.8 
 154.382      -51.1 
 154.606      -56.8 
 154.829      -55.9 
 155.052      -57.9 
 155.276      -58.7 
 155.499      -58.8 
 155.722      -61.6 
 155.946      -61.6 
 156.169      -59.1 
 156.392      -59.4 
 156.615      -56.8 
 156.839      -58.8 
 157.062      -56.0 
 157.285      -56.1 
 157.509      -61.6 
 157.732      -60.9 
 157.955      -59.9 
 158.179      -59.2 
 158.402      -66.5 
 158.625      -67.4 
 158.848      -67.4 
 159.072      -71.3 
 159.295      -73.4 
 159.518      -73.9 
 159.742      -73.2 
 159.965      -68.6 
 160.188      -70.2 
 160.412      -69.5 
 160.635      -73.3 
 160.858      -75.7 
 161.081      -76.8 
 161.305      -74.6 
 161.528      -76.4 
 161.751      -78.3 
 161.975      -76.0 
 162.198      -78.9 
 162.421      -79.7 
 162.644      -78.4 
 162.868      -80.4 
 163.091      -80.6 
 163.314      -78.7 
 163.538      -77.3 
 163.761      -76.2 
 163.984      -77.4 
 164.208      -73.2 
 164.431      -74.1 
 164.654      -73.2 
 164.877      -72.9 
 165.101      -72.9 
 165.324      -74.0 
 165.547      -80.0 
 165.771      -80.1 
 165.994      -73.9 
 166.217      -68.8 
 166.441      -65.3 
 166.664      -67.6 
 166.887      -62.9 
 167.110      -62.6 
 167.334      -63.4 
 167.557      -63.5 
 167.780      -65.6 
 168.004      -66.3 
 168.227      -62.4 
 168.450      -60.0 
 168.674      -61.0 
 168.897      -60.4 
 169.120      -64.0 
 169.343      -64.7 
 169.567      -63.1 
 169.790      -64.5 
 170.013      -70.7 
 170.237      -75.8 
 170.460      -74.2 
 170.683      -72.8 
 170.906      -70.9 
 171.130      -71.6 
 171.353      -81.0 
 171.576      -82.3 
 171.800      -83.0 
 172.023      -75.4 
 172.246      -77.0 
 172.470      -81.9 
 172.693      -84.1 
 172.916      -86.9 
 173.139      -84.0 
 173.363      -82.8 
 173.586      -82.8 
 173.809      -83.9 
 174.033      -83.1 
 174.256      -85.1 
 174.479      -84.0 
 174.703      -87.9 
 174.926      -89.7 
 175.149      -93.3 
 175.372      -88.1 
 175.596      -86.3 
 175.819      -85.9 
 176.042      -84.8 
 176.266      -85.8 
 176.489      -93.5 
 176.712      -95.6 
 176.936      -91.2 
 177.159      -91.8 
 177.382      -91.6 
 177.605      -87.2 
 177.829      -83.2 
 178.052      -84.1 
 178.275      -89.3 
 178.499      -84.4 
 178.722      -85.4 
 178.945      -88.6 
 179.169      -85.5 
 179.392      -83.4 
 179.615      -76.9 
 179.838      -67.6 
 180.062      -69.0 
 180.285      -71.9 
 180.508      -74.3 
 180.732      -76.6 
 180.955      -71.8 
 181.178      -72.4 
 181.401      -73.6 
 181.625      -74.6 
 181.848      -72.8 
 182.071      -69.7 
 182.295      -75.1 
 182.518      -79.2 
 182.741      -79.7 
 182.965      -83.9 
 183.188      -85.2 
 183.411      -83.6 
 183.634      -82.1 
 183.858      -84.1 
 184.081      -85.9 
 184.304      -84.2 
 184.528      -82.6 
 184.751      -81.7 
 184.974      -80.6 
 185.198      -81.3 
 185.421      -85.7 
 185.644      -84.2 
 185.867      -83.0 
 186.091      -81.4 
 186.314      -83.8 
 186.537      -85.1 
 186.761      -83.8 
 186.984      -79.5 
 187.207      -78.8 
 187.431      -76.9 
 187.654      -76.6 
 187.877      -77.2 
 188.100      -73.2 
 188.324      -74.5 
 188.547      -75.7 
 188.770      -75.4 
 188.994      -76.9 
 189.217      -74.5 
 189.440      -69.1 
 189.663      -64.7 
 189.887      -66.7 
 190.110      -66.5 
 190.333      -65.2 
 190.557      -66.5 
 190.780      -64.8 
 191.003      -64.4 
 191.227      -63.9 
 191.450      -66.5 
 191.673      -63.4 
 191.896      -64.6 
 192.120      -60.6 
 192.343      -61.2 
 192.566      -60.7 
 192.790      -59.2 
 193.013      -56.8 
 193.236      -63.3 
 193.460      -63.8 
 193.683      -62.7 
 193.906      -65.9 
 194.129      -67.1 
 194.353      -65.6 
 194.576      -64.4 
 194.799      -63.4 
 195.023      -63.6 
 195.246      -60.8 
 195.469      -62.9 
 195.693      -64.4 
 195.916      -60.0 
 196.139      -58.9 
 196.362      -58.6 
 196.586      -58.5 
 196.809      -58.4 
 197.032      -58.9 
 197.256      -60.2 
 197.479      -63.1 
 197.702      -58.4 
 197.925      -57.0 
 198.149      -56.5 
 198.372      -57.0 
 198.595      -51.2 
 198.819      -51.7 
 199.042      -54.5 
 199.265      -59.5 
 199.489      -56.3 
 199.712      -53.7 
 199.935      -53.8 
 200.158      -54.3 
 200.382      -55.5 
 200.605      -54.8 
 200.828      -55.1 
 201.052      -50.8 
 201.275      -46.1 
 201.498      -53.8 
 201.722      -59.8 
 201.945      -61.2 
 202.168      -58.3 
 202.391      -56.9 
 202.615      -56.8 
 202.838      -62.9 
 203.061      -64.5 
 203.285      -64.3 
 203.508      -59.9 
 203.731      -57.6 
 203.955      -57.7 
 204.178      -55.3 
 204.401      -51.0 
 204.624      -54.5 
 204.848      -56.6 
 205.071      -58.8 
 205.294      -58.3 
 205.518      -59.4 
 205.741      -56.4 
 205.964      -56.0 
 206.187      -57.6 
 206.411      -51.1 
 206.634      -55.4 
 206.857      -59.5 
 207.081      -53.9 
 207.304      -54.7 
 207.527      -51.3 
 207.751      -49.1 
 207.974      -53.7 
 208.197      -51.6 
 208.420      -51.5 
 208.644      -55.7 
 208.867      -59.7 
 209.090      -63.7 
 209.314      -60.2 
 209.537      -57.6 
 209.760      -58.4 
 209.984      -54.2 
 210.207      -53.9 
 210.430      -53.8 
 210.653      -60.0 
 210.877      -57.8 
 211.100      -55.3 
 211.323      -51.7 
 211.547      -50.8 
 211.770      -52.5 
 211.993      -55.3 
 212.217      -54.6 
 212.440      -54.1 
 212.663      -57.3 
 212.886      -56.6 
 213.110      -60.6 
 213.333      -60.4 
 213.556      -58.0 
 213.780      -53.1 
 214.003      -50.6 
 214.226      -47.5 
 214.449      -50.2 
 214.673      -47.4 
 214.896      -48.7 
 215.119      -53.5 
 215.343      -53.7 
 215.566      -52.3 
 215.789      -53.9 
 216.013      -57.3 
 216.236      -53.8 
 216.459      -55.8 
 216.682      -52.0 
 216.906      -58.0 
 217.129      -50.9 
 217.352      -47.1 
 217.576      -52.2 
 217.799      -55.3 
 218.022      -54.6 
 218.246      -55.8 
 218.469      -56.4 
 218.692      -53.5 
 218.915      -49.5 
 219.139      -53.4 
 219.362      -51.3 
 219.585      -49.7 
 219.809      -52.4 
 220.032      -53.7 
 220.255      -51.1 
 220.479      -54.2 
 220.702      -53.2 
 220.925      -55.5 
 221.148      -56.2 
 221.372      -54.1 
 221.595      -50.3 
 221.818      -51.5 
 222.042      -52.7 
 222.265      -52.1 
 222.488      -50.8 
 222.711      -53.9 
 222.935      -49.2 
 223.158      -48.2 
 223.381      -52.1 
 223.605      -53.5 
 223.828      -52.7 
 224.051      -52.6 
 224.275      -56.3 
 224.498      -56.3 
 224.721      -50.7 
 224.944      -49.8 
 225.168      -48.7 
 225.391      -49.0 
 225.614      -49.9 
 225.838      -52.3 
 226.061      -58.1 
 226.284      -58.3 
 226.508      -54.2 
 226.731      -55.0 
 226.954      -54.9 
 227.177      -51.7 
 227.401      -52.3 
 227.624      -49.3 
 227.847      -48.8 
 228.071      -48.2 
 228.294      -50.0 
