Date : Thu Jun 03 17:32:30 2021

3000ev

AES params
 Ep [eV] : 3000.0
 It [uA] : 0.40
 Fmod [kHz] : 2.2
 Amod [V] : 1.20
 SEM [V] : 2018
Lock-in params
 Sensitivity [mV] : 0.030
 Phase [deg] : 74.0
 Time const [ms] : 0.3
 Prefilter [ms] : 100.0

   Start-End(eV)  Res(meV)  ms/pnt  Rate(eV/s) Aver
1     40-1000        223    300      0.744     1
Num of spectra : 1

  40.028     -380.8 
  40.251     -383.2 
  40.474     -381.3 
  40.698     -374.1 
  40.921     -362.6 
  41.144     -355.6 
  41.368     -345.8 
  41.591     -342.8 
  41.814     -338.5 
  42.037     -335.7 
  42.261     -333.0 
  42.484     -326.6 
  42.707     -317.5 
  42.931     -313.3 
  43.154     -312.7 
  43.377     -307.4 
  43.600     -303.4 
  43.824     -300.9 
  44.047     -294.9 
  44.270     -296.5 
  44.494     -295.3 
  44.717     -289.8 
  44.940     -285.6 
  45.164     -281.9 
  45.387     -285.5 
  45.610     -284.3 
  45.833     -286.0 
  46.057     -282.4 
  46.280     -278.3 
  46.503     -274.9 
  46.727     -276.7 
  46.950     -275.9 
  47.173     -271.0 
  47.397     -271.1 
  47.620     -270.1 
  47.843     -266.6 
  48.066     -265.6 
  48.290     -264.2 
  48.513     -263.2 
  48.736     -263.5 
  48.960     -260.8 
  49.183     -255.7 
  49.406     -256.5 
  49.630     -254.0 
  49.853     -254.4 
  50.076     -253.4 
  50.299     -250.2 
  50.523     -246.7 
  50.746     -246.7 
  50.969     -243.4 
  51.193     -243.2 
  51.416     -239.7 
  51.639     -235.7 
  51.862     -236.0 
  52.086     -229.9 
  52.309     -223.7 
  52.532     -216.4 
  52.756     -208.2 
  52.979     -200.2 
  53.202     -198.1 
  53.426     -196.9 
  53.649     -190.3 
  53.872     -190.3 
  54.095     -182.9 
  54.319     -179.7 
  54.542     -182.3 
  54.765     -179.0 
  54.989     -179.8 
  55.212     -177.4 
  55.435     -175.2 
  55.659     -172.6 
  55.882     -170.7 
  56.105     -170.1 
  56.328     -167.0 
  56.552     -166.6 
  56.775     -169.5 
  56.998     -167.4 
  57.222     -168.8 
  57.445     -166.2 
  57.668     -164.1 
  57.892     -165.8 
  58.115     -164.3 
  58.338     -166.8 
  58.561     -165.9 
  58.785     -167.1 
  59.008     -164.6 
  59.231     -168.9 
  59.455     -166.6 
  59.678     -163.4 
  59.901     -162.8 
  60.124     -167.1 
  60.348     -165.4 
  60.571     -168.7 
  60.794     -169.1 
  61.018     -170.8 
  61.241     -171.8 
  61.464     -165.2 
  61.688     -164.0 
  61.911     -164.0 
  62.134     -168.1 
  62.357     -168.9 
  62.581     -165.1 
  62.804     -162.1 
  63.027     -163.8 
  63.251     -159.4 
  63.474     -157.5 
  63.697     -155.4 
  63.921     -160.0 
  64.144     -163.5 
  64.367     -158.9 
  64.590     -155.2 
  64.814     -152.5 
  65.037     -152.9 
  65.260     -151.3 
  65.484     -151.6 
  65.707     -149.2 
  65.930     -152.4 
  66.154     -155.6 
  66.377     -157.8 
  66.600     -150.4 
  66.823     -144.6 
  67.047     -144.7 
  67.270     -144.2 
  67.493     -141.8 
  67.717     -142.6 
  67.940     -146.1 
  68.163     -145.4 
  68.386     -135.3 
  68.610     -134.2 
  68.833     -132.9 
  69.056     -127.6 
  69.280     -124.0 
  69.503     -119.3 
  69.726     -119.2 
  69.950     -116.2 
  70.173     -113.0 
  70.396     -105.4 
  70.619      -98.7 
  70.843      -93.6 
  71.066      -85.7 
  71.289      -80.7 
  71.513      -77.0 
  71.736      -70.6 
  71.959      -63.5 
  72.183      -57.8 
  72.406      -56.1 
  72.629      -53.3 
  72.852      -52.4 
  73.076      -45.4 
  73.299      -45.4 
  73.522      -44.2 
  73.746      -43.3 
  73.969      -43.9 
  74.192      -50.1 
  74.416      -55.8 
  74.639      -66.7 
  74.862      -71.3 
  75.085      -77.4 
  75.309      -84.3 
  75.532      -95.3 
  75.755     -105.4 
  75.979     -120.6 
  76.202     -128.3 
  76.425     -137.1 
  76.648     -147.6 
  76.872     -167.5 
  77.095     -176.9 
  77.318     -179.9 
  77.542     -186.9 
  77.765     -196.5 
  77.988     -205.7 
  78.212     -215.0 
  78.435     -222.1 
  78.658     -226.0 
  78.881     -223.9 
  79.105     -228.3 
  79.328     -230.3 
  79.551     -233.6 
  79.775     -229.9 
  79.998     -230.1 
  80.221     -224.1 
  80.445     -221.9 
  80.668     -222.5 
  80.891     -221.9 
  81.114     -218.6 
  81.338     -215.6 
  81.561     -208.7 
  81.784     -208.3 
  82.008     -205.4 
  82.231     -203.1 
  82.454     -204.8 
  82.678     -204.7 
  82.901     -198.9 
  83.124     -190.4 
  83.347     -186.6 
  83.571     -183.7 
  83.794     -180.0 
  84.017     -176.0 
  84.241     -168.5 
  84.464     -165.2 
  84.687     -165.8 
  84.910     -161.8 
  85.134     -159.2 
  85.357     -154.3 
  85.580     -156.1 
  85.804     -151.3 
  86.027     -147.8 
  86.250     -148.4 
  86.474     -143.1 
  86.697     -140.1 
  86.920     -139.2 
  87.143     -135.0 
  87.367     -136.7 
  87.590     -136.8 
  87.813     -135.3 
  88.037     -133.9 
  88.260     -135.8 
  88.483     -130.1 
  88.707     -124.8 
  88.930     -123.8 
  89.153     -125.0 
  89.376     -124.5 
  89.600     -121.0 
  89.823     -117.6 
  90.046     -117.5 
  90.270     -110.1 
  90.493     -114.0 
  90.716     -112.3 
  90.940     -109.6 
  91.163     -103.7 
  91.386     -100.4 
  91.609      -93.8 
  91.833      -89.2 
  92.056      -86.4 
  92.279      -81.1 
  92.503      -79.0 
  92.726      -74.4 
  92.949      -67.9 
  93.172      -65.7 
  93.396      -64.8 
  93.619      -61.6 
  93.842      -53.0 
  94.066      -48.4 
  94.289      -45.0 
  94.512      -41.4 
  94.736      -41.3 
  94.959      -34.7 
  95.182      -27.5 
  95.405      -28.3 
  95.629      -26.6 
  95.852      -22.9 
  96.075      -22.6 
  96.299      -18.1 
  96.522      -17.8 
  96.745      -23.3 
  96.969      -25.2 
  97.192      -19.7 
  97.415      -20.7 
  97.638      -24.4 
  97.862      -30.2 
  98.085      -32.8 
  98.308      -35.1 
  98.532      -43.6 
  98.755      -52.5 
  98.978      -56.3 
  99.202      -62.0 
  99.425      -69.0 
  99.648      -73.0 
  99.871      -77.5 
 100.095      -85.2 
 100.318      -92.6 
 100.541      -96.1 
 100.765     -105.1 
 100.988     -113.1 
 101.211     -121.4 
 101.434     -121.5 
 101.658     -127.0 
 101.881     -131.1 
 102.104     -131.7 
 102.328     -130.5 
 102.551     -129.7 
 102.774     -135.2 
 102.998     -135.3 
 103.221     -131.8 
 103.444     -128.0 
 103.667     -120.8 
 103.891     -118.6 
 104.114     -118.8 
 104.337     -119.0 
 104.561     -114.6 
 104.784     -113.3 
 105.007     -113.8 
 105.231     -113.5 
 105.454     -114.3 
 105.677     -112.0 
 105.900     -104.9 
 106.124     -102.8 
 106.347     -100.3 
 106.570     -101.5 
 106.794     -103.4 
 107.017     -102.7 
 107.240     -100.4 
 107.464      -99.5 
 107.687     -104.1 
 107.910     -105.1 
 108.133     -113.3 
 108.357     -115.2 
 108.580     -118.3 
 108.803     -123.4 
 109.027     -125.7 
 109.250     -133.6 
 109.473     -135.5 
 109.697     -135.8 
 109.920     -139.4 
 110.143     -142.9 
 110.366     -146.0 
 110.590     -148.1 
 110.813     -153.0 
 111.036     -156.9 
 111.260     -158.6 
 111.483     -158.7 
 111.706     -161.1 
 111.929     -165.7 
 112.153     -163.3 
 112.376     -163.8 
 112.599     -156.3 
 112.823     -151.0 
 113.046     -148.2 
 113.269     -146.5 
 113.493     -145.4 
 113.716     -139.6 
 113.939     -135.6 
 114.162     -130.9 
 114.386     -126.5 
 114.609     -114.9 
 114.832     -109.3 
 115.056     -103.6 
 115.279      -97.1 
 115.502      -96.2 
 115.726      -91.9 
 115.949      -81.4 
 116.172      -69.6 
 116.395      -65.2 
 116.619      -59.1 
 116.842      -55.1 
 117.065      -49.2 
 117.289      -48.1 
 117.512      -41.7 
 117.735      -36.0 
 117.959      -30.7 
 118.182      -31.1 
 118.405      -33.2 
 118.628      -33.2 
 118.852      -34.0 
 119.075      -33.2 
 119.298      -35.4 
 119.522      -35.8 
 119.745      -33.1 
 119.968      -36.7 
 120.191      -38.7 
 120.415      -39.1 
 120.638      -45.2 
 120.861      -44.3 
 121.085      -42.9 
 121.308      -43.8 
 121.531      -44.5 
 121.755      -49.6 
 121.978      -53.5 
 122.201      -54.0 
 122.424      -54.4 
 122.648      -57.3 
 122.871      -61.8 
 123.094      -63.8 
 123.318      -70.3 
 123.541      -76.8 
 123.764      -82.2 
 123.988      -86.6 
 124.211      -98.0 
 124.434     -105.2 
 124.657     -117.5 
 124.881     -128.3 
 125.104     -133.8 
 125.327     -141.0 
 125.551     -151.7 
 125.774     -158.6 
 125.997     -163.5 
 126.221     -163.4 
 126.444     -168.6 
 126.667     -171.0 
 126.890     -171.4 
 127.114     -171.5 
 127.337     -172.2 
 127.560     -172.5 
 127.784     -171.1 
 128.007     -169.9 
 128.230     -157.4 
 128.453     -151.3 
 128.677     -151.1 
 128.900     -145.7 
 129.123     -137.8 
 129.347     -133.5 
 129.570     -123.9 
 129.793     -119.6 
 130.017     -119.8 
 130.240     -120.7 
 130.463     -112.7 
 130.686     -106.4 
 130.910      -99.2 
 131.133     -103.9 
 131.356     -101.3 
 131.580      -95.0 
 131.803      -93.3 
 132.026      -93.1 
 132.250      -96.9 
 132.473      -95.1 
 132.696      -94.1 
 132.919      -88.0 
 133.143      -89.3 
 133.366      -93.8 
 133.589      -97.7 
 133.813      -90.6 
 134.036      -92.1 
 134.259      -95.8 
 134.483      -94.7 
 134.706      -91.1 
 134.929      -86.7 
 135.152      -85.3 
 135.376      -87.4 
 135.599      -88.4 
 135.822      -83.2 
 136.046      -83.8 
 136.269      -86.0 
 136.492      -86.1 
 136.715      -83.8 
 136.939      -82.4 
 137.162      -79.9 
 137.385      -76.9 
 137.609      -72.0 
 137.832      -69.1 
 138.055      -74.2 
 138.279      -70.2 
 138.502      -70.3 
 138.725      -73.0 
 138.948      -64.2 
 139.172      -63.6 
 139.395      -68.2 
 139.618      -72.4 
 139.842      -64.9 
 140.065      -64.7 
 140.288      -68.7 
 140.512      -63.3 
 140.735      -67.8 
 140.958      -71.6 
 141.181      -72.2 
 141.405      -69.7 
 141.628      -71.1 
 141.851      -71.7 
 142.075      -73.8 
 142.298      -73.3 
 142.521      -68.5 
 142.745      -72.0 
 142.968      -75.1 
 143.191      -72.8 
 143.414      -69.1 
 143.638      -68.0 
 143.861      -71.9 
 144.084      -74.7 
 144.308      -76.0 
 144.531      -76.0 
 144.754      -79.1 
 144.977      -81.1 
 145.201      -76.4 
 145.424      -81.5 
 145.647      -89.9 
 145.871      -95.3 
 146.094      -90.6 
 146.317      -88.5 
 146.541      -85.4 
 146.764      -84.6 
 146.987      -89.7 
 147.210      -91.1 
 147.434      -93.9 
 147.657      -92.6 
 147.880      -91.0 
 148.104      -90.5 
 148.327      -89.9 
 148.550      -90.9 
 148.774      -88.8 
 148.997      -84.6 
 149.220      -81.5 
 149.443      -81.8 
 149.667      -76.9 
 149.890      -77.1 
 150.113      -80.3 
 150.337      -80.0 
 150.560      -76.6 
 150.783      -73.3 
 151.007      -71.1 
 151.230      -70.2 
 151.453      -70.7 
 151.676      -69.0 
 151.900      -70.0 
 152.123      -69.2 
 152.346      -70.6 
 152.570      -73.1 
 152.793      -71.7 
 153.016      -68.0 
 153.239      -72.4 
 153.463      -73.9 
 153.686      -73.1 
 153.909      -73.0 
 154.133      -69.6 
 154.356      -69.5 
 154.579      -68.2 
 154.803      -72.9 
 155.026      -71.9 
 155.249      -67.0 
 155.472      -67.1 
 155.696      -66.4 
 155.919      -73.1 
 156.142      -78.4 
 156.366      -74.0 
 156.589      -74.5 
 156.812      -76.9 
 157.036      -78.2 
 157.259      -76.8 
 157.482      -72.3 
 157.705      -76.8 
 157.929      -81.4 
 158.152      -81.6 
 158.375      -80.5 
 158.599      -80.4 
 158.822      -81.8 
 159.045      -78.7 
 159.269      -82.1 
 159.492      -83.3 
 159.715      -77.8 
 159.938      -81.0 
 160.162      -80.6 
 160.385      -79.1 
 160.608      -78.7 
 160.832      -83.1 
 161.055      -87.1 
 161.278      -87.8 
 161.501      -90.2 
 161.725      -90.8 
 161.948      -85.8 
 162.171      -85.5 
 162.395      -83.1 
 162.618      -84.7 
 162.841      -82.1 
 163.065      -81.3 
 163.288      -80.8 
 163.511      -83.5 
 163.734      -82.0 
 163.958      -79.8 
 164.181      -79.4 
 164.404      -85.0 
 164.628      -84.4 
 164.851      -81.4 
 165.074      -76.0 
 165.298      -79.1 
 165.521      -78.4 
 165.744      -80.0 
 165.967      -81.2 
 166.191      -80.4 
 166.414      -80.8 
 166.637      -79.5 
 166.861      -75.3 
 167.084      -77.3 
 167.307      -82.9 
 167.531      -81.9 
 167.754      -80.3 
 167.977      -76.9 
 168.200      -77.5 
 168.424      -76.5 
 168.647      -76.1 
 168.870      -80.7 
 169.094      -84.2 
 169.317      -87.6 
 169.540      -85.0 
 169.763      -88.9 
 169.987      -88.7 
 170.210      -87.2 
 170.433      -88.5 
 170.657      -90.7 
 170.880      -91.2 
 171.103      -91.1 
 171.327      -93.2 
 171.550      -92.5 
 171.773      -93.6 
 171.996      -97.9 
 172.220      -93.3 
 172.443      -90.9 
 172.666      -85.5 
 172.890      -89.6 
 173.113      -96.8 
 173.336      -97.6 
 173.560      -96.2 
 173.783      -94.9 
 174.006      -94.4 
 174.229     -100.1 
 174.453     -101.8 
 174.676     -100.2 
 174.899      -96.0 
 175.123      -92.8 
 175.346      -93.2 
 175.569      -95.5 
 175.793      -94.5 
 176.016      -96.5 
 176.239      -96.7 
 176.462      -92.5 
 176.686      -96.4 
 176.909     -100.8 
 177.132      -95.5 
 177.356      -97.8 
 177.579      -96.3 
 177.802      -93.5 
 178.025      -86.8 
 178.249      -80.4 
 178.472      -85.5 
 178.695      -89.5 
 178.919      -85.4 
 179.142      -84.6 
 179.365      -83.4 
 179.589      -84.7 
 179.812      -86.3 
 180.035      -87.8 
 180.258      -83.2 
 180.482      -84.4 
 180.705      -86.7 
 180.928      -86.8 
 181.152      -87.3 
 181.375      -85.2 
 181.598      -81.2 
 181.822      -83.6 
 182.045      -81.1 
 182.268      -80.1 
 182.491      -87.3 
 182.715      -87.6 
 182.938      -93.4 
 183.161      -89.3 
 183.385      -83.9 
 183.608      -84.9 
 183.831      -83.9 
 184.055      -87.3 
 184.278      -87.9 
 184.501      -86.6 
 184.724      -85.8 
 184.948      -85.9 
 185.171      -84.3 
 185.394      -88.5 
 185.618      -87.2 
 185.841      -89.9 
 186.064      -88.9 
 186.287      -81.8 
 186.511      -81.3 
 186.734      -78.2 
 186.957      -77.3 
 187.181      -76.5 
 187.404      -76.1 
 187.627      -76.9 
 187.851      -78.0 
 188.074      -79.9 
 188.297      -79.4 
 188.520      -79.8 
 188.744      -79.6 
 188.967      -76.4 
 189.190      -74.1 
 189.414      -74.9 
 189.637      -78.1 
 189.860      -74.3 
 190.084      -70.0 
 190.307      -68.8 
 190.530      -74.7 
 190.753      -77.7 
 190.977      -79.7 
 191.200      -77.2 
 191.423      -72.3 
 191.647      -77.0 
 191.870      -71.4 
 192.093      -74.2 
 192.317      -72.7 
 192.540      -74.5 
 192.763      -69.0 
 192.986      -68.6 
 193.210      -71.4 
 193.433      -69.0 
 193.656      -69.3 
 193.880      -73.6 
 194.103      -73.6 
 194.326      -72.0 
 194.549      -68.3 
 194.773      -66.2 
 194.996      -66.0 
 195.219      -66.4 
 195.443      -68.7 
 195.666      -66.5 
 195.889      -66.8 
 196.113      -71.1 
 196.336      -74.0 
 196.559      -72.7 
 196.782      -69.7 
 197.006      -66.4 
 197.229      -69.9 
 197.452      -70.7 
 197.676      -65.1 
 197.899      -64.9 
 198.122      -67.3 
 198.346      -70.5 
 198.569      -67.2 
 198.792      -64.9 
 199.015      -69.6 
 199.239      -64.6 
 199.462      -69.0 
 199.685      -66.3 
 199.909      -67.4 
 200.132      -70.2 
 200.355      -70.3 
 200.579      -65.4 
 200.802      -69.8 
 201.025      -71.4 
 201.248      -71.4 
 201.472      -72.2 
 201.695      -73.2 
 201.918      -69.7 
 202.142      -68.8 
 202.365      -69.7 
 202.588      -70.3 
 202.812      -64.1 
 203.035      -65.7 
 203.258      -71.5 
 203.481      -72.5 
 203.705      -71.1 
 203.928      -74.5 
 204.151      -71.6 
 204.375      -69.6 
 204.598      -67.9 
 204.821      -63.2 
 205.044      -65.6 
 205.268      -67.8 
 205.491      -66.6 
 205.714      -67.5 
 205.938      -70.8 
 206.161      -70.7 
 206.384      -66.3 
 206.608      -65.0 
 206.831      -68.2 
 207.054      -71.6 
 207.277      -68.6 
 207.501      -69.7 
 207.724      -69.6 
 207.947      -69.0 
 208.171      -70.6 
 208.394      -73.8 
 208.617      -70.0 
 208.841      -67.1 
 209.064      -68.3 
 209.287      -66.1 
 209.510      -68.4 
 209.734      -69.7 
 209.957      -69.2 
 210.180      -67.1 
 210.404      -68.8 
 210.627      -68.7 
 210.850      -65.6 
 211.074      -64.5 
 211.297      -64.5 
 211.520      -64.5 
 211.743      -67.3 
 211.967      -70.3 
 212.190      -70.4 
 212.413      -70.5 
 212.637      -72.3 
 212.860      -69.8 
 213.083      -70.2 
 213.306      -69.7 
 213.530      -69.2 
 213.753      -69.4 
 213.976      -67.0 
 214.200      -69.8 
 214.423      -71.2 
 214.646      -68.2 
 214.870      -67.0 
 215.093      -67.0 
 215.316      -66.1 
 215.539      -64.3 
 215.763      -67.2 
 215.986      -62.4 
 216.209      -61.5 
 216.433      -65.8 
 216.656      -70.3 
 216.879      -71.1 
 217.103      -70.0 
 217.326      -67.6 
 217.549      -61.8 
 217.772      -62.3 
 217.996      -67.5 
 218.219      -68.1 
 218.442      -70.3 
 218.666      -68.2 
 218.889      -73.3 
 219.112      -70.4 
 219.336      -67.8 
 219.559      -69.5 
 219.782      -70.8 
 220.005      -65.9 
 220.229      -66.2 
 220.452      -69.4 
 220.675      -73.6 
 220.899      -68.7 
 221.122      -68.7 
 221.345      -69.7 
 221.568      -66.8 
 221.792      -66.1 
 222.015      -61.1 
 222.238      -62.8 
 222.462      -64.0 
 222.685      -63.2 
 222.908      -63.1 
 223.132      -64.5 
 223.355      -63.4 
 223.578      -64.1 
 223.801      -64.9 
 224.025      -64.4 
 224.248      -62.7 
 224.471      -65.8 
 224.695      -64.6 
 224.918      -67.3 
 225.141      -63.4 
 225.365      -62.5 
 225.588      -64.7 
 225.811      -62.8 
 226.034      -63.4 
 226.258      -64.0 
 226.481      -69.2 
 226.704      -70.3 
 226.928      -70.4 
 227.151      -71.1 
 227.374      -64.5 
 227.598      -64.3 
 227.821      -68.1 
 228.044      -70.3 
 228.267      -73.5 
 228.491      -70.0 
 228.714      -67.9 
 228.937      -69.2 
 229.161      -67.6 
 229.384      -68.3 
 229.607      -69.6 
 229.830      -67.9 
 230.054      -63.8 
 230.277      -67.5 
 230.500      -64.2 
 230.724      -67.0 
 230.947      -65.5 
 231.170      -62.1 
 231.394      -62.0 
 231.617      -63.8 
 231.840      -62.9 
 232.063      -68.4 
 232.287      -68.2 
 232.510      -72.0 
 232.733      -72.2 
 232.957      -69.0 
 233.180      -63.1 
 233.403      -64.2 
 233.627      -65.0 
 233.850      -60.8 
 234.073      -60.5 
 234.296      -63.2 
 234.520      -64.8 
 234.743      -65.4 
 234.966      -61.8 
 235.190      -64.2 
 235.413      -63.9 
 235.636      -65.2 
 235.860      -62.9 
 236.083      -62.4 
 236.306      -57.8 
 236.529      -58.6 
 236.753      -60.1 
 236.976      -62.0 
 237.199      -61.3 
 237.423      -63.6 
 237.646      -65.8 
 237.869      -66.9 
 238.092      -63.4 
 238.316      -59.4 
 238.539      -56.8 
 238.762      -60.8 
 238.986      -58.5 
 239.209      -55.3 
 239.432      -54.9 
 239.656      -51.1 
 239.879      -54.1 
 240.102      -59.1 
 240.325      -60.0 
 240.549      -62.3 
 240.772      -65.0 
 240.995      -60.4 
 241.219      -54.7 
 241.442      -56.3 
 241.665      -54.4 
 241.889      -57.4 
 242.112      -58.9 
 242.335      -58.4 
 242.558      -63.2 
 242.782      -66.7 
 243.005      -66.3 
 243.228      -68.1 
 243.452      -61.7 
 243.675      -59.6 
 243.898      -62.4 
 244.122      -67.8 
 244.345      -67.3 
 244.568      -65.8 
 244.791      -66.6 
 245.015      -72.6 
 245.238      -75.4 
 245.461      -71.7 
 245.685      -69.2 
 245.908      -69.8 
 246.131      -71.5 
 246.354      -72.8 
 246.578      -72.6 
 246.801      -63.8 
 247.024      -61.1 
 247.248      -64.8 
 247.471      -64.2 
 247.694      -60.5 
 247.918      -66.4 
 248.141      -65.9 
 248.364      -62.5 
