Date : Thu Jun 03 17:59:32 2021

3000ev

AES params
 Ep [eV] : 3000.0
 It [uA] : 0.40
 Fmod [kHz] : 2.2
 Amod [V] : 1.20
 SEM [V] : 2018
Lock-in params
 Sensitivity [mV] : 0.030
 Phase [deg] : 74.0
 Time const [ms] : 0.3
 Prefilter [ms] : 100.0

   Start-End(eV)  Res(meV)  ms/pnt  Rate(eV/s) Aver
1   1000-1800        223    300      0.744     1
Num of spectra : 1

1000.012      -56.5 
1000.235      -57.2 
1000.458      -58.3 
1000.682      -62.9 
1000.905      -55.5 
1001.128      -57.6 
1001.352      -52.9 
1001.575      -46.6 
1001.798      -51.3 
1002.021      -58.3 
1002.245      -59.1 
1002.468      -60.1 
1002.691      -56.6 
1002.915      -61.0 
1003.138      -57.5 
1003.361      -53.8 
1003.585      -53.2 
1003.808      -56.4 
1004.031      -55.4 
1004.254      -53.5 
1004.478      -48.3 
1004.701      -46.3 
1004.924      -55.3 
1005.148      -55.1 
1005.371      -49.8 
1005.594      -50.5 
1005.817      -52.5 
1006.041      -52.8 
1006.264      -46.8 
1006.487      -45.4 
1006.711      -52.8 
1006.934      -53.7 
1007.157      -57.5 
1007.381      -59.3 
1007.604      -56.4 
1007.827      -53.1 
1008.050      -56.5 
1008.274      -56.3 
1008.497      -52.1 
1008.720      -58.3 
1008.944      -57.3 
1009.167      -60.7 
1009.390      -60.2 
1009.614      -62.8 
1009.837      -63.3 
1010.060      -60.1 
1010.283      -56.3 
1010.507      -55.9 
1010.730      -50.9 
1010.953      -51.5 
1011.177      -48.8 
1011.400      -53.2 
1011.623      -57.4 
1011.847      -58.3 
1012.070      -62.3 
1012.293      -59.4 
1012.516      -55.7 
1012.740      -54.0 
1012.963      -61.3 
1013.186      -62.2 
1013.410      -55.7 
1013.633      -48.2 
1013.856      -48.9 
1014.079      -49.0 
1014.303      -57.4 
1014.526      -62.0 
1014.749      -52.9 
1014.973      -50.9 
1015.196      -49.9 
1015.419      -52.2 
1015.643      -54.2 
1015.866      -56.7 
1016.089      -57.7 
1016.312      -56.8 
1016.536      -54.9 
1016.759      -51.3 
1016.982      -55.3 
1017.206      -54.3 
1017.429      -58.9 
1017.652      -62.0 
1017.876      -60.6 
1018.099      -63.6 
1018.322      -63.8 
1018.545      -64.6 
1018.769      -55.5 
1018.992      -47.0 
1019.215      -48.7 
1019.439      -47.4 
1019.662      -50.0 
1019.885      -60.2 
1020.109      -53.3 
1020.332      -50.7 
1020.555      -61.0 
1020.778      -56.9 
1021.002      -46.7 
1021.225      -53.8 
1021.448      -50.7 
1021.672      -53.3 
1021.895      -50.9 
1022.118      -55.9 
1022.341      -63.7 
1022.565      -57.2 
1022.788      -52.8 
1023.011      -58.4 
1023.235      -59.3 
1023.458      -55.5 
1023.681      -50.0 
1023.905      -54.8 
1024.128      -53.6 
1024.351      -56.0 
1024.574      -58.5 
1024.798      -53.7 
1025.021      -54.2 
1025.244      -51.1 
1025.468      -55.1 
1025.691      -57.1 
1025.914      -56.5 
1026.138      -51.0 
1026.361      -51.9 
1026.584      -56.9 
1026.807      -57.0 
1027.031      -54.3 
1027.254      -58.0 
1027.477      -58.4 
1027.701      -60.7 
1027.924      -59.4 
1028.147      -52.8 
1028.371      -53.7 
1028.594      -53.7 
1028.817      -59.1 
1029.040      -59.2 
1029.264      -61.3 
1029.487      -60.2 
1029.710      -56.5 
1029.934      -54.5 
1030.157      -58.7 
1030.380      -57.1 
1030.603      -54.5 
1030.827      -58.1 
1031.050      -53.2 
1031.273      -48.5 
1031.497      -49.9 
1031.720      -55.7 
1031.943      -59.2 
1032.167      -57.6 
1032.390      -54.0 
1032.613      -56.0 
1032.836      -60.1 
1033.060      -53.6 
1033.283      -56.1 
1033.506      -53.8 
1033.730      -52.9 
1033.953      -49.6 
1034.176      -55.4 
1034.400      -57.6 
1034.623      -60.9 
1034.846      -65.4 
1035.069      -61.4 
1035.293      -58.5 
1035.516      -59.5 
1035.739      -55.7 
1035.963      -58.1 
1036.186      -52.6 
1036.409      -49.2 
1036.633      -49.1 
1036.856      -58.3 
1037.079      -63.4 
1037.302      -64.9 
1037.526      -62.4 
1037.749      -58.3 
1037.972      -61.3 
1038.196      -58.3 
1038.419      -57.2 
1038.642      -49.2 
1038.865      -45.1 
1039.089      -43.9 
1039.312      -47.4 
1039.535      -51.6 
1039.759      -53.2 
1039.982      -55.8 
1040.205      -55.1 
1040.429      -55.4 
1040.652      -55.6 
1040.875      -53.3 
1041.098      -57.0 
1041.322      -55.1 
1041.545      -57.5 
1041.768      -54.1 
1041.992      -50.9 
1042.215      -50.9 
1042.438      -52.8 
1042.662      -51.6 
1042.885      -58.5 
1043.108      -61.1 
1043.331      -66.0 
1043.555      -63.0 
1043.778      -59.4 
1044.001      -61.1 
1044.225      -59.2 
1044.448      -58.6 
1044.671      -50.9 
1044.895      -60.3 
1045.118      -64.1 
1045.341      -58.4 
1045.564      -57.1 
1045.788      -50.4 
1046.011      -45.5 
1046.234      -50.7 
1046.458      -54.1 
1046.681      -54.5 
1046.904      -51.5 
1047.127      -50.5 
1047.351      -47.6 
1047.574      -56.5 
1047.797      -57.4 
1048.021      -59.7 
1048.244      -53.6 
1048.467      -52.1 
1048.691      -52.2 
1048.914      -54.5 
1049.137      -52.9 
1049.360      -51.3 
1049.584      -52.1 
1049.807      -53.4 
1050.030      -51.0 
1050.254      -50.2 
1050.477      -55.0 
1050.700      -55.5 
1050.924      -47.6 
1051.147      -49.8 
1051.370      -53.5 
1051.593      -55.6 
1051.817      -55.7 
1052.040      -56.2 
1052.263      -49.4 
1052.487      -51.6 
1052.710      -43.8 
1052.933      -44.8 
1053.157      -43.8 
1053.380      -44.2 
1053.603      -46.8 
1053.826      -50.3 
1054.050      -51.4 
1054.273      -52.2 
1054.496      -58.5 
1054.720      -61.5 
1054.943      -57.2 
1055.166      -51.9 
1055.389      -51.8 
1055.613      -52.3 
1055.836      -55.5 
1056.059      -55.1 
1056.283      -57.8 
1056.506      -57.1 
1056.729      -47.1 
1056.953      -48.5 
1057.176      -49.4 
1057.399      -44.6 
1057.622      -44.0 
1057.846      -46.7 
1058.069      -48.2 
1058.292      -56.2 
1058.516      -60.6 
1058.739      -57.8 
1058.962      -55.3 
1059.186      -51.0 
1059.409      -50.9 
1059.632      -52.5 
1059.855      -47.6 
1060.079      -49.8 
1060.302      -55.6 
1060.525      -54.3 
1060.749      -56.5 
1060.972      -51.1 
1061.195      -49.5 
1061.419      -55.6 
1061.642      -58.1 
1061.865      -53.4 
1062.088      -56.5 
1062.312      -56.7 
1062.535      -52.1 
1062.758      -49.1 
1062.982      -54.0 
1063.205      -51.5 
1063.428      -50.7 
1063.651      -47.0 
1063.875      -49.5 
1064.098      -53.6 
1064.321      -57.3 
1064.545      -59.0 
1064.768      -59.7 
1064.991      -58.6 
1065.215      -54.2 
1065.438      -48.1 
1065.661      -49.3 
1065.884      -50.9 
1066.108      -50.6 
1066.331      -54.2 
1066.554      -47.0 
1066.778      -46.0 
1067.001      -48.0 
1067.224      -50.1 
1067.448      -54.1 
1067.671      -57.7 
1067.894      -52.8 
1068.117      -47.4 
1068.341      -61.8 
1068.564      -59.7 
1068.787      -56.0 
1069.011      -49.9 
1069.234      -48.2 
1069.457      -51.1 
1069.681      -56.2 
1069.904      -54.9 
1070.127      -51.3 
1070.350      -55.8 
1070.574      -52.1 
1070.797      -54.1 
1071.020      -57.7 
1071.244      -57.7 
1071.467      -53.9 
1071.690      -55.3 
1071.913      -55.1 
1072.137      -45.4 
1072.360      -43.0 
1072.583      -47.1 
1072.807      -52.0 
1073.030      -52.8 
1073.253      -55.2 
1073.477      -47.6 
1073.700      -47.5 
1073.923      -47.9 
1074.146      -51.3 
1074.370      -50.7 
1074.593      -55.4 
1074.816      -51.9 
1075.040      -54.6 
1075.263      -51.8 
1075.486      -47.9 
1075.710      -46.1 
1075.933      -48.8 
1076.156      -55.4 
1076.379      -56.1 
1076.603      -49.9 
1076.826      -45.7 
1077.049      -42.8 
1077.273      -44.0 
1077.496      -52.2 
1077.719      -53.0 
1077.943      -52.3 
1078.166      -55.9 
1078.389      -55.9 
1078.612      -53.6 
1078.836      -54.5 
1079.059      -50.8 
1079.282      -49.3 
1079.506      -47.6 
1079.729      -48.6 
1079.952      -56.2 
1080.175      -55.0 
1080.399      -54.4 
1080.622      -52.2 
1080.845      -54.3 
1081.069      -53.0 
1081.292      -56.1 
1081.515      -55.3 
1081.739      -58.5 
1081.962      -55.7 
1082.185      -55.0 
1082.408      -53.6 
1082.632      -54.3 
1082.855      -56.6 
1083.078      -56.3 
1083.302      -49.3 
1083.525      -52.0 
1083.748      -51.4 
1083.972      -55.6 
1084.195      -50.5 
1084.418      -49.9 
1084.641      -46.7 
1084.865      -52.2 
1085.088      -52.0 
1085.311      -48.8 
1085.535      -47.1 
1085.758      -58.5 
1085.981      -63.0 
1086.205      -63.4 
1086.428      -58.4 
1086.651      -54.5 
1086.874      -58.6 
1087.098      -54.8 
1087.321      -58.0 
1087.544      -54.3 
1087.768      -58.1 
1087.991      -55.9 
1088.214      -51.2 
1088.437      -52.3 
1088.661      -48.2 
1088.884      -55.4 
1089.107      -54.2 
1089.331      -54.8 
1089.554      -60.6 
1089.777      -55.0 
1090.001      -55.2 
1090.224      -53.2 
1090.447      -58.1 
1090.670      -55.1 
1090.894      -51.6 
1091.117      -47.8 
1091.340      -43.4 
1091.564      -49.0 
1091.787      -54.0 
1092.010      -53.3 
1092.234      -48.8 
1092.457      -50.2 
1092.680      -53.5 
1092.903      -49.8 
1093.127      -50.1 
1093.350      -48.7 
1093.573      -51.6 
1093.797      -53.4 
1094.020      -58.3 
1094.243      -51.4 
1094.467      -49.7 
1094.690      -52.0 
1094.913      -51.9 
1095.136      -51.5 
1095.360      -57.4 
1095.583      -54.0 
1095.806      -52.1 
1096.030      -55.3 
1096.253      -54.9 
1096.476      -53.2 
1096.699      -54.9 
1096.923      -54.6 
1097.146      -55.3 
1097.369      -51.7 
1097.593      -49.5 
1097.816      -49.4 
1098.039      -50.1 
1098.263      -48.4 
1098.486      -48.0 
1098.709      -50.7 
1098.932      -49.3 
1099.156      -44.6 
1099.379      -47.0 
1099.602      -44.1 
1099.826      -42.5 
1100.049      -38.8 
1100.272      -39.8 
1100.496      -43.2 
1100.719      -47.4 
1100.942      -50.6 
1101.165      -53.8 
1101.389      -54.3 
1101.612      -53.8 
1101.835      -51.9 
1102.059      -53.8 
1102.282      -53.5 
1102.505      -51.4 
1102.729      -55.9 
1102.952      -51.9 
1103.175      -53.2 
1103.398      -48.5 
1103.622      -49.0 
1103.845      -51.4 
1104.068      -54.3 
1104.292      -56.0 
1104.515      -57.2 
1104.738      -52.3 
1104.962      -52.2 
1105.185      -55.9 
1105.408      -55.5 
1105.631      -49.8 
1105.855      -48.2 
1106.078      -48.9 
1106.301      -51.0 
1106.525      -63.7 
1106.748      -60.1 
1106.971      -54.3 
1107.194      -55.7 
1107.418      -57.5 
1107.641      -46.5 
1107.864      -43.0 
1108.088      -52.2 
1108.311      -50.1 
1108.534      -53.1 
1108.758      -52.3 
1108.981      -51.1 
1109.204      -56.8 
1109.427      -58.6 
1109.651      -58.3 
1109.874      -58.3 
1110.097      -57.8 
1110.321      -58.5 
1110.544      -63.0 
1110.767      -58.2 
1110.991      -56.1 
1111.214      -55.3 
1111.437      -49.4 
1111.660      -52.5 
1111.884      -55.4 
1112.107      -59.1 
1112.330      -54.0 
1112.554      -50.6 
1112.777      -54.4 
1113.000      -48.7 
1113.224      -48.6 
1113.447      -44.7 
1113.670      -49.2 
1113.893      -53.2 
1114.117      -55.9 
1114.340      -52.2 
1114.563      -53.2 
1114.787      -52.7 
1115.010      -54.9 
1115.233      -52.2 
1115.456      -58.1 
1115.680      -61.1 
1115.903      -56.3 
1116.126      -54.1 
1116.350      -53.8 
1116.573      -47.0 
1116.796      -46.7 
1117.020      -50.9 
1117.243      -55.5 
1117.466      -49.6 
1117.689      -48.0 
1117.913      -51.9 
1118.136      -50.4 
1118.359      -46.8 
1118.583      -48.6 
1118.806      -53.6 
1119.029      -52.8 
1119.253      -51.1 
1119.476      -50.1 
1119.699      -47.1 
1119.922      -55.3 
1120.146      -60.2 
1120.369      -56.8 
1120.592      -56.2 
1120.816      -60.1 
1121.039      -60.5 
1121.262      -58.7 
1121.486      -54.3 
1121.709      -46.2 
1121.932      -48.9 
1122.155      -53.0 
1122.379      -55.0 
1122.602      -54.7 
1122.825      -54.2 
1123.049      -56.1 
1123.272      -55.6 
1123.495      -57.9 
1123.718      -65.8 
1123.942      -68.9 
1124.165      -70.1 
1124.388      -64.8 
1124.612      -55.1 
1124.835      -55.8 
1125.058      -57.1 
1125.282      -59.0 
1125.505      -53.7 
1125.728      -51.4 
1125.951      -59.2 
1126.175      -58.0 
1126.398      -48.9 
1126.621      -47.1 
1126.845      -53.9 
1127.068      -50.9 
1127.291      -53.0 
1127.515      -53.6 
1127.738      -60.6 
1127.961      -64.4 
1128.184      -60.6 
1128.408      -56.5 
1128.631      -49.6 
1128.854      -47.4 
1129.078      -47.1 
1129.301      -55.9 
1129.524      -53.6 
1129.748      -55.0 
1129.971      -62.0 
1130.194      -64.3 
1130.417      -57.1 
1130.641      -49.2 
1130.864      -54.5 
1131.087      -55.5 
1131.311      -57.7 
1131.534      -53.1 
1131.757      -45.8 
1131.980      -47.8 
1132.204      -45.6 
1132.427      -42.8 
1132.650      -45.9 
1132.874      -49.7 
1133.097      -51.3 
1133.320      -48.7 
1133.544      -43.2 
1133.767      -47.1 
1133.990      -50.0 
1134.213      -51.2 
1134.437      -48.1 
1134.660      -50.6 
1134.883      -58.7 
1135.107      -64.2 
1135.330      -59.3 
1135.553      -50.8 
1135.777      -53.6 
1136.000      -54.6 
1136.223      -50.2 
1136.446      -48.5 
1136.670      -44.6 
1136.893      -46.0 
1137.116      -56.3 
1137.340      -63.6 
1137.563      -60.6 
1137.786      -51.6 
1138.010      -52.2 
1138.233      -51.4 
1138.456      -51.9 
1138.679      -56.7 
1138.903      -54.1 
1139.126      -46.6 
1139.349      -44.6 
1139.573      -51.0 
1139.796      -58.5 
1140.019      -58.7 
1140.242      -53.3 
1140.466      -56.1 
1140.689      -58.1 
1140.912      -53.1 
1141.136      -45.0 
1141.359      -43.5 
1141.582      -44.1 
1141.806      -45.2 
1142.029      -47.8 
1142.252      -50.9 
1142.475      -47.0 
1142.699      -51.6 
1142.922      -55.5 
1143.145      -49.8 
1143.369      -50.2 
1143.592      -54.0 
1143.815      -50.8 
1144.039      -52.6 
1144.262      -49.0 
1144.485      -49.9 
1144.708      -48.8 
1144.932      -54.7 
1145.155      -57.1 
1145.378      -54.1 
1145.602      -56.7 
1145.825      -57.5 
1146.048      -56.9 
1146.272      -54.4 
1146.495      -45.1 
1146.718      -45.2 
1146.941      -45.3 
1147.165      -47.4 
1147.388      -53.0 
1147.611      -49.6 
1147.835      -54.6 
1148.058      -53.4 
1148.281      -48.5 
1148.504      -46.9 
1148.728      -52.9 
1148.951      -50.8 
1149.174      -45.8 
1149.398      -49.3 
1149.621      -51.8 
1149.844      -45.2 
1150.068      -45.5 
1150.291      -54.7 
1150.514      -53.8 
1150.737      -47.8 
1150.961      -44.7 
1151.184      -44.4 
1151.407      -46.4 
1151.631      -49.6 
1151.854      -55.9 
1152.077      -52.4 
1152.301      -53.0 
1152.524      -50.9 
1152.747      -52.0 
1152.970      -57.3 
1153.194      -53.0 
1153.417      -50.3 
1153.640      -49.8 
1153.864      -48.4 
1154.087      -50.2 
1154.310      -50.8 
1154.534      -54.7 
1154.757      -54.5 
1154.980      -58.8 
1155.203      -52.7 
1155.427      -48.0 
1155.650      -52.4 
1155.873      -51.9 
1156.097      -47.7 
1156.320      -46.2 
1156.543      -51.3 
1156.766      -57.5 
1156.990      -51.8 
1157.213      -55.6 
1157.436      -49.8 
1157.660      -45.5 
1157.883      -42.3 
1158.106      -49.9 
1158.330      -53.4 
1158.553      -54.3 
1158.776      -45.8 
1158.999      -47.1 
1159.223      -53.0 
1159.446      -55.7 
1159.669      -51.9 
1159.893      -53.4 
1160.116      -56.6 
1160.339      -56.3 
1160.563      -55.6 
1160.786      -50.5 
1161.009      -51.9 
1161.232      -52.6 
1161.456      -55.7 
1161.679      -54.5 
1161.902      -51.4 
1162.126      -48.3 
1162.349      -48.9 
1162.572      -46.4 
1162.796      -50.4 
1163.019      -55.4 
1163.242      -45.9 
1163.465      -44.3 
1163.689      -44.3 
1163.912      -53.9 
1164.135      -51.7 
1164.359      -48.8 
1164.582      -47.2 
1164.805      -48.4 
1165.028      -41.8 
1165.252      -38.3 
1165.475      -41.6 
1165.698      -48.8 
1165.922      -45.2 
1166.145      -47.1 
1166.368      -46.0 
1166.592      -44.9 
1166.815      -47.6 
1167.038      -48.2 
1167.261      -49.9 
1167.485      -58.4 
1167.708      -57.9 
1167.931      -52.7 
1168.155      -51.2 
1168.378      -48.8 
1168.601      -40.8 
1168.825      -42.6 
1169.048      -45.9 
1169.271      -48.8 
1169.494      -55.1 
1169.718      -54.7 
1169.941      -48.5 
1170.164      -46.3 
1170.388      -47.0 
1170.611      -50.3 
1170.834      -43.1 
1171.058      -46.9 
1171.281      -55.9 
1171.504      -62.3 
1171.727      -52.7 
1171.951      -48.3 
1172.174      -49.0 
1172.397      -49.6 
1172.621      -48.3 
1172.844      -51.3 
1173.067      -49.3 
1173.290      -54.4 
1173.514      -55.3 
1173.737      -50.9 
1173.960      -52.4 
1174.184      -46.4 
1174.407      -50.4 
1174.630      -57.1 
1174.854      -56.4 
1175.077      -50.2 
1175.300      -52.0 
1175.523      -53.0 
1175.747      -51.9 
1175.970      -49.8 
1176.193      -50.2 
1176.417      -51.6 
1176.640      -50.9 
1176.863      -53.5 
1177.087      -52.7 
1177.310      -52.2 
1177.533      -50.4 
1177.756      -48.9 
1177.980      -55.4 
1178.203      -51.7 
1178.426      -47.3 
1178.650      -47.8 
1178.873      -52.1 
1179.096      -50.5 
1179.320      -49.6 
1179.543      -51.5 
1179.766      -49.7 
1179.989      -55.0 
1180.213      -58.0 
1180.436      -52.8 
1180.659      -45.1 
1180.883      -44.8 
1181.106      -53.3 
1181.329      -46.0 
1181.552      -40.4 
1181.776      -52.8 
1181.999      -53.5 
1182.222      -48.6 
1182.446      -45.6 
1182.669      -38.6 
1182.892      -45.5 
1183.116      -52.6 
1183.339      -49.9 
1183.562      -51.9 
1183.785      -51.9 
1184.009      -55.0 
1184.232      -56.1 
1184.455      -50.7 
1184.679      -45.8 
1184.902      -45.9 
1185.125      -51.6 
1185.349      -51.3 
1185.572      -56.4 
1185.795      -59.7 
1186.018      -58.3 
1186.242      -59.3 
1186.465      -53.0 
1186.688      -49.4 
1186.912      -50.3 
1187.135      -51.0 
1187.358      -52.4 
1187.582      -56.4 
1187.805      -53.2 
1188.028      -48.3 
1188.251      -47.7 
1188.475      -42.6 
1188.698      -42.0 
1188.921      -52.3 
1189.145      -52.8 
1189.368      -53.1 
1189.591      -49.4 
1189.814      -51.6 
1190.038      -53.6 
1190.261      -57.7 
1190.484      -52.6 
1190.708      -54.4 
1190.931      -54.1 
1191.154      -51.3 
1191.378      -50.7 
1191.601      -50.8 
1191.824      -54.7 
1192.047      -53.7 
1192.271      -50.1 
1192.494      -46.8 
1192.717      -43.0 
1192.941      -45.4 
1193.164      -46.5 
1193.387      -48.9 
1193.611      -45.3 
1193.834      -45.7 
1194.057      -49.0 
1194.280      -49.6 
1194.504      -51.2 
1194.727      -52.8 
1194.950      -49.8 
1195.174      -44.2 
1195.397      -48.5 
1195.620      -52.1 
1195.844      -53.8 
1196.067      -52.2 
1196.290      -51.9 
1196.513      -46.6 
1196.737      -47.2 
1196.960      -42.7 
1197.183      -39.2 
1197.407      -49.4 
1197.630      -50.5 
1197.853      -48.1 
1198.077      -51.3 
1198.300      -55.8 
1198.523      -55.4 
1198.746      -50.7 
